wavelength,polarizability
500,-167.04
500.1,-167.173
500.2,-167.305
500.3,-167.437
500.4,-167.57
500.5,-167.702
500.6,-167.834
500.7,-167.967
500.8,-168.099
500.9,-168.231
501,-168.364
501.1,-168.496
501.2,-168.628
501.3,-168.761
501.4,-168.893
501.5,-169.025
501.6,-169.157
501.7,-169.29
501.8,-169.422
501.9,-169.554
502,-169.687
502.1,-169.819
502.2,-169.951
502.3,-170.083
502.4,-170.216
502.5,-170.348
502.6,-170.48
502.7,-170.613
502.8,-170.745
502.9,-170.877
503,-171.01
503.1,-171.142
503.2,-171.274
503.3,-171.407
503.4,-171.539
503.5,-171.672
503.6,-171.804
503.7,-171.936
503.8,-172.069
503.9,-172.201
504,-172.334
504.1,-172.466
504.2,-172.599
504.3,-172.731
504.4,-172.863
504.5,-172.996
504.6,-173.128
504.7,-173.261
504.8,-173.394
504.9,-173.526
505,-173.659
505.1,-173.791
505.2,-173.924
505.3,-174.056
505.4,-174.189
505.5,-174.322
505.6,-174.454
505.7,-174.587
505.8,-174.72
505.9,-174.853
506,-174.985
506.1,-175.118
506.2,-175.251
506.3,-175.384
506.4,-175.517
506.5,-175.649
506.6,-175.782
506.7,-175.915
506.8,-176.048
506.9,-176.181
507,-176.314
507.1,-176.447
507.2,-176.58
507.3,-176.713
507.4,-176.846
507.5,-176.979
507.6,-177.112
507.7,-177.245
507.8,-177.378
507.9,-177.512
508,-177.645
508.1,-177.778
508.2,-177.911
508.3,-178.045
508.4,-178.178
508.5,-178.311
508.6,-178.445
508.7,-178.578
508.8,-178.712
508.9,-178.845
509,-178.979
509.1,-179.112
509.2,-179.246
509.3,-179.379
509.4,-179.513
509.5,-179.646
509.6,-179.78
509.7,-179.914
509.8,-180.048
509.9,-180.181
510,-180.315
510.1,-180.449
510.2,-180.583
510.3,-180.717
510.4,-180.851
510.5,-180.985
510.6,-181.119
510.7,-181.253
510.8,-181.387
510.9,-181.521
511,-181.655
511.1,-181.789
511.2,-181.924
511.3,-182.058
511.4,-182.192
511.5,-182.326
511.6,-182.461
511.7,-182.595
511.8,-182.73
511.9,-182.864
512,-182.999
512.1,-183.133
512.2,-183.268
512.3,-183.403
512.4,-183.537
512.5,-183.672
512.6,-183.807
512.7,-183.942
512.8,-184.076
512.9,-184.211
513,-184.346
513.1,-184.481
513.2,-184.616
513.3,-184.751
513.4,-184.886
513.5,-185.021
513.6,-185.157
513.7,-185.292
513.8,-185.427
513.9,-185.562
514,-185.698
514.1,-185.833
514.2,-185.969
514.3,-186.104
514.4,-186.24
514.5,-186.375
514.6,-186.511
514.7,-186.647
514.8,-186.782
514.9,-186.918
515,-187.054
515.1,-187.19
515.2,-187.326
515.3,-187.461
515.4,-187.597
515.5,-187.734
515.6,-187.87
515.7,-188.006
515.8,-188.142
515.9,-188.278
516,-188.414
516.1,-188.551
516.2,-188.687
516.3,-188.824
516.4,-188.96
516.5,-189.097
516.6,-189.233
516.7,-189.37
516.8,-189.506
516.9,-189.643
517,-189.78
517.1,-189.917
517.2,-190.054
517.3,-190.191
517.4,-190.328
517.5,-190.465
517.6,-190.602
517.7,-190.739
517.8,-190.876
517.9,-191.013
518,-191.15
518.1,-191.288
518.2,-191.425
518.3,-191.563
518.4,-191.7
518.5,-191.838
518.6,-191.975
518.7,-192.113
518.8,-192.251
518.9,-192.388
519,-192.526
519.1,-192.664
519.2,-192.802
519.3,-192.94
519.4,-193.078
519.5,-193.216
519.6,-193.354
519.7,-193.493
519.8,-193.631
519.9,-193.769
520,-193.908
520.1,-194.046
520.2,-194.184
520.3,-194.323
520.4,-194.462
520.5,-194.6
520.6,-194.739
520.7,-194.878
520.8,-195.017
520.9,-195.156
521,-195.295
521.1,-195.434
521.2,-195.573
521.3,-195.712
521.4,-195.851
521.5,-195.99
521.6,-196.129
521.7,-196.269
521.8,-196.408
521.9,-196.548
522,-196.687
522.1,-196.827
522.2,-196.967
522.3,-197.106
522.4,-197.246
522.5,-197.386
522.6,-197.526
522.7,-197.666
522.8,-197.806
522.9,-197.946
523,-198.086
523.1,-198.226
523.2,-198.367
523.3,-198.507
523.4,-198.647
523.5,-198.788
523.6,-198.928
523.7,-199.069
523.8,-199.21
523.9,-199.35
524,-199.491
524.1,-199.632
524.2,-199.773
524.3,-199.914
524.4,-200.055
524.5,-200.196
524.6,-200.337
524.7,-200.478
524.8,-200.62
524.9,-200.761
525,-200.903
525.1,-201.044
525.2,-201.186
525.3,-201.327
525.4,-201.469
525.5,-201.611
525.6,-201.753
525.7,-201.894
525.8,-202.036
525.9,-202.178
526,-202.321
526.1,-202.463
526.2,-202.605
526.3,-202.747
526.4,-202.89
526.5,-203.032
526.6,-203.175
526.7,-203.317
526.8,-203.46
526.9,-203.602
527,-203.745
527.1,-203.888
527.2,-204.031
527.3,-204.174
527.4,-204.317
527.5,-204.46
527.6,-204.603
527.7,-204.747
527.8,-204.89
527.9,-205.033
528,-205.177
528.1,-205.32
528.2,-205.464
528.3,-205.607
528.4,-205.751
528.5,-205.895
528.6,-206.039
528.7,-206.183
528.8,-206.327
528.9,-206.471
529,-206.615
529.1,-206.759
529.2,-206.904
529.3,-207.048
529.4,-207.193
529.5,-207.337
529.6,-207.482
529.7,-207.626
529.8,-207.771
529.9,-207.916
530,-208.061
530.1,-208.206
530.2,-208.351
530.3,-208.496
530.4,-208.641
530.5,-208.786
530.6,-208.932
530.7,-209.077
530.8,-209.223
530.9,-209.368
531,-209.514
531.1,-209.66
531.2,-209.805
531.3,-209.951
531.4,-210.097
531.5,-210.243
531.6,-210.389
531.7,-210.535
531.8,-210.682
531.9,-210.828
532,-210.974
532.1,-211.121
532.2,-211.267
532.3,-211.414
532.4,-211.561
532.5,-211.707
532.6,-211.854
532.7,-212.001
532.8,-212.148
532.9,-212.295
533,-212.442
533.1,-212.589
533.2,-212.737
533.3,-212.884
533.4,-213.032
533.5,-213.179
533.6,-213.327
533.7,-213.474
533.8,-213.622
533.9,-213.77
534,-213.918
534.1,-214.066
534.2,-214.214
534.3,-214.362
534.4,-214.51
534.5,-214.659
534.6,-214.807
534.7,-214.956
534.8,-215.104
534.9,-215.253
535,-215.402
535.1,-215.55
535.2,-215.699
535.3,-215.848
535.4,-215.997
535.5,-216.146
535.6,-216.296
535.7,-216.445
535.8,-216.594
535.9,-216.744
536,-216.893
536.1,-217.043
536.2,-217.192
536.3,-217.342
536.4,-217.492
536.5,-217.642
536.6,-217.792
536.7,-217.942
536.8,-218.092
536.9,-218.243
537,-218.393
537.1,-218.543
537.2,-218.694
537.3,-218.844
537.4,-218.995
537.5,-219.146
537.6,-219.297
537.7,-219.448
537.8,-219.599
537.9,-219.75
538,-219.901
538.1,-220.052
538.2,-220.203
538.3,-220.355
538.4,-220.506
538.5,-220.658
538.6,-220.81
538.7,-220.961
538.8,-221.113
538.9,-221.265
539,-221.417
539.1,-221.569
539.2,-221.722
539.3,-221.874
539.4,-222.026
539.5,-222.179
539.6,-222.331
539.7,-222.484
539.8,-222.637
539.9,-222.789
540,-222.942
540.1,-223.095
540.2,-223.248
540.3,-223.401
540.4,-223.555
540.5,-223.708
540.6,-223.861
540.7,-224.015
540.8,-224.168
540.9,-224.322
541,-224.476
541.1,-224.63
541.2,-224.784
541.3,-224.938
541.4,-225.092
541.5,-225.246
541.6,-225.4
541.7,-225.555
541.8,-225.709
541.9,-225.864
542,-226.018
542.1,-226.173
542.2,-226.328
542.3,-226.483
542.4,-226.638
542.5,-226.793
542.6,-226.948
542.7,-227.103
542.8,-227.258
542.9,-227.414
543,-227.569
543.1,-227.725
543.2,-227.881
543.3,-228.037
543.4,-228.192
543.5,-228.348
543.6,-228.505
543.7,-228.661
543.8,-228.817
543.9,-228.973
544,-229.13
544.1,-229.286
544.2,-229.443
544.3,-229.6
544.4,-229.756
544.5,-229.913
544.6,-230.07
544.7,-230.227
544.8,-230.385
544.9,-230.542
545,-230.699
545.1,-230.857
545.2,-231.014
545.3,-231.172
545.4,-231.33
545.5,-231.488
545.6,-231.645
545.7,-231.803
545.8,-231.962
545.9,-232.12
546,-232.278
546.1,-232.437
546.2,-232.595
546.3,-232.754
546.4,-232.912
546.5,-233.071
546.6,-233.23
546.7,-233.389
546.8,-233.548
546.9,-233.707
547,-233.866
547.1,-234.026
547.2,-234.185
547.3,-234.345
547.4,-234.504
547.5,-234.664
547.6,-234.824
547.7,-234.984
547.8,-235.144
547.9,-235.304
548,-235.464
548.1,-235.624
548.2,-235.785
548.3,-235.945
548.4,-236.106
548.5,-236.267
548.6,-236.427
548.7,-236.588
548.8,-236.749
548.9,-236.91
549,-237.072
549.1,-237.233
549.2,-237.394
549.3,-237.556
549.4,-237.717
549.5,-237.879
549.6,-238.041
549.7,-238.203
549.8,-238.365
549.9,-238.527
550,-238.689
550.1,-238.851
550.2,-239.014
550.3,-239.176
550.4,-239.339
550.5,-239.501
550.6,-239.664
550.7,-239.827
550.8,-239.99
550.9,-240.153
551,-240.316
551.1,-240.479
551.2,-240.643
551.3,-240.806
551.4,-240.97
551.5,-241.133
551.6,-241.297
551.7,-241.461
551.8,-241.625
551.9,-241.789
552,-241.953
552.1,-242.118
552.2,-242.282
552.3,-242.447
552.4,-242.611
552.5,-242.776
552.6,-242.941
552.7,-243.106
552.8,-243.271
552.9,-243.436
553,-243.601
553.1,-243.766
553.2,-243.932
553.3,-244.097
553.4,-244.263
553.5,-244.428
553.6,-244.594
553.7,-244.76
553.8,-244.926
553.9,-245.092
554,-245.259
554.1,-245.425
554.2,-245.591
554.3,-245.758
554.4,-245.925
554.5,-246.091
554.6,-246.258
554.7,-246.425
554.8,-246.592
554.9,-246.76
555,-246.927
555.1,-247.094
555.2,-247.262
555.3,-247.429
555.4,-247.597
555.5,-247.765
555.6,-247.933
555.7,-248.101
555.8,-248.269
555.9,-248.437
556,-248.606
556.1,-248.774
556.2,-248.943
556.3,-249.111
556.4,-249.28
556.5,-249.449
556.6,-249.618
556.7,-249.787
556.8,-249.956
556.9,-250.126
557,-250.295
557.1,-250.465
557.2,-250.634
557.3,-250.804
557.4,-250.974
557.5,-251.144
557.6,-251.314
557.7,-251.484
557.8,-251.655
557.9,-251.825
558,-251.995
558.1,-252.166
558.2,-252.337
558.3,-252.508
558.4,-252.679
558.5,-252.85
558.6,-253.021
558.7,-253.192
558.8,-253.364
558.9,-253.535
559,-253.707
559.1,-253.878
559.2,-254.05
559.3,-254.222
559.4,-254.394
559.5,-254.567
559.6,-254.739
559.7,-254.911
559.8,-255.084
559.9,-255.256
560,-255.429
560.1,-255.602
560.2,-255.775
560.3,-255.948
560.4,-256.121
560.5,-256.295
560.6,-256.468
560.7,-256.641
560.8,-256.815
560.9,-256.989
561,-257.163
561.1,-257.337
561.2,-257.511
561.3,-257.685
561.4,-257.859
561.5,-258.034
561.6,-258.208
561.7,-258.383
561.8,-258.558
561.9,-258.733
562,-258.908
562.1,-259.083
562.2,-259.258
562.3,-259.433
562.4,-259.609
562.5,-259.785
562.6,-259.96
562.7,-260.136
562.8,-260.312
562.9,-260.488
563,-260.664
563.1,-260.84
563.2,-261.017
563.3,-261.193
563.4,-261.37
563.5,-261.547
563.6,-261.724
563.7,-261.901
563.8,-262.078
563.9,-262.255
564,-262.432
564.1,-262.61
564.2,-262.787
564.3,-262.965
564.4,-263.143
564.5,-263.321
564.6,-263.499
564.7,-263.677
564.8,-263.855
564.9,-264.034
565,-264.212
565.1,-264.391
565.2,-264.57
565.3,-264.748
565.4,-264.927
565.5,-265.107
565.6,-265.286
565.7,-265.465
565.8,-265.645
565.9,-265.824
566,-266.004
566.1,-266.184
566.2,-266.364
566.3,-266.544
566.4,-266.724
566.5,-266.904
566.6,-267.085
566.7,-267.265
566.8,-267.446
566.9,-267.627
567,-267.808
567.1,-267.989
567.2,-268.17
567.3,-268.351
567.4,-268.533
567.5,-268.714
567.6,-268.896
567.7,-269.078
567.8,-269.26
567.9,-269.442
568,-269.624
568.1,-269.806
568.2,-269.988
568.3,-270.171
568.4,-270.354
568.5,-270.536
568.6,-270.719
568.7,-270.902
568.8,-271.085
568.9,-271.269
569,-271.452
569.1,-271.636
569.2,-271.819
569.3,-272.003
569.4,-272.187
569.5,-272.371
569.6,-272.555
569.7,-272.739
569.8,-272.924
569.9,-273.108
570,-273.293
570.1,-273.478
570.2,-273.662
570.3,-273.847
570.4,-274.033
570.5,-274.218
570.6,-274.403
570.7,-274.589
570.8,-274.774
570.9,-274.96
571,-275.146
571.1,-275.332
571.2,-275.518
571.3,-275.705
571.4,-275.891
571.5,-276.078
571.6,-276.264
571.7,-276.451
571.8,-276.638
571.9,-276.825
572,-277.012
572.1,-277.2
572.2,-277.387
572.3,-277.575
572.4,-277.762
572.5,-277.95
572.6,-278.138
572.7,-278.326
572.8,-278.514
572.9,-278.703
573,-278.891
573.1,-279.08
573.2,-279.269
573.3,-279.458
573.4,-279.647
573.5,-279.836
573.6,-280.025
573.7,-280.214
573.8,-280.404
573.9,-280.594
574,-280.783
574.1,-280.973
574.2,-281.163
574.3,-281.354
574.4,-281.544
574.5,-281.734
574.6,-281.925
574.7,-282.116
574.8,-282.307
574.9,-282.498
575,-282.689
575.1,-282.88
575.2,-283.071
575.3,-283.263
575.4,-283.455
575.5,-283.646
575.6,-283.838
575.7,-284.03
575.8,-284.222
575.9,-284.415
576,-284.607
576.1,-284.8
576.2,-284.993
576.3,-285.186
576.4,-285.379
576.5,-285.572
576.6,-285.765
576.7,-285.958
576.8,-286.152
576.9,-286.346
577,-286.539
577.1,-286.733
577.2,-286.927
577.3,-287.122
577.4,-287.316
577.5,-287.511
577.6,-287.705
577.7,-287.9
577.8,-288.095
577.9,-288.29
578,-288.485
578.1,-288.681
578.2,-288.876
578.3,-289.072
578.4,-289.267
578.5,-289.463
578.6,-289.659
578.7,-289.855
578.8,-290.052
578.9,-290.248
579,-290.445
579.1,-290.642
579.2,-290.838
579.3,-291.035
579.4,-291.233
579.5,-291.43
579.6,-291.627
579.7,-291.825
579.8,-292.023
579.9,-292.22
580,-292.418
580.1,-292.616
580.2,-292.815
580.3,-293.013
580.4,-293.212
580.5,-293.41
580.6,-293.609
580.7,-293.808
580.8,-294.007
580.9,-294.207
581,-294.406
581.1,-294.606
581.2,-294.805
581.3,-295.005
581.4,-295.205
581.5,-295.405
581.6,-295.606
581.7,-295.806
581.8,-296.006
581.9,-296.207
582,-296.408
582.1,-296.609
582.2,-296.81
582.3,-297.011
582.4,-297.213
582.5,-297.414
582.6,-297.616
582.7,-297.818
582.8,-298.02
582.9,-298.222
583,-298.424
583.1,-298.627
583.2,-298.83
583.3,-299.032
583.4,-299.235
583.5,-299.438
583.6,-299.641
583.7,-299.845
583.8,-300.048
583.9,-300.252
584,-300.456
584.1,-300.659
584.2,-300.864
584.3,-301.068
584.4,-301.272
584.5,-301.477
584.6,-301.681
584.7,-301.886
584.8,-302.091
584.9,-302.296
585,-302.501
585.1,-302.707
585.2,-302.912
585.3,-303.118
585.4,-303.324
585.5,-303.53
585.6,-303.736
585.7,-303.942
585.8,-304.149
585.9,-304.355
586,-304.562
586.1,-304.769
586.2,-304.976
586.3,-305.183
586.4,-305.391
586.5,-305.598
586.6,-305.806
586.7,-306.014
586.8,-306.222
586.9,-306.43
587,-306.638
587.1,-306.847
587.2,-307.055
587.3,-307.264
587.4,-307.473
587.5,-307.682
587.6,-307.891
587.7,-308.1
587.8,-308.31
587.9,-308.52
588,-308.729
588.1,-308.939
588.2,-309.149
588.3,-309.36
588.4,-309.57
588.5,-309.781
588.6,-309.992
588.7,-310.202
588.8,-310.413
588.9,-310.625
589,-310.836
589.1,-311.048
589.2,-311.259
589.3,-311.471
589.4,-311.683
589.5,-311.895
589.6,-312.108
589.7,-312.32
589.8,-312.533
589.9,-312.746
590,-312.958
590.1,-313.172
590.2,-313.385
590.3,-313.598
590.4,-313.812
590.5,-314.026
590.6,-314.24
590.7,-314.454
590.8,-314.668
590.9,-314.882
591,-315.097
591.1,-315.311
591.2,-315.526
591.3,-315.741
591.4,-315.956
591.5,-316.172
591.6,-316.387
591.7,-316.603
591.8,-316.819
591.9,-317.035
592,-317.251
592.1,-317.467
592.2,-317.684
592.3,-317.9
592.4,-318.117
592.5,-318.334
592.6,-318.551
592.7,-318.769
592.8,-318.986
592.9,-319.204
593,-319.421
593.1,-319.639
593.2,-319.857
593.3,-320.076
593.4,-320.294
593.5,-320.513
593.6,-320.732
593.7,-320.95
593.8,-321.17
593.9,-321.389
594,-321.608
594.1,-321.828
594.2,-322.048
594.3,-322.268
594.4,-322.488
594.5,-322.708
594.6,-322.928
594.7,-323.149
594.8,-323.37
594.9,-323.591
595,-323.812
595.1,-324.033
595.2,-324.254
595.3,-324.476
595.4,-324.698
595.5,-324.92
595.6,-325.142
595.7,-325.364
595.8,-325.587
595.9,-325.809
596,-326.032
596.1,-326.255
596.2,-326.478
596.3,-326.701
596.4,-326.925
596.5,-327.148
596.6,-327.372
596.7,-327.596
596.8,-327.82
596.9,-328.045
597,-328.269
597.1,-328.494
597.2,-328.719
597.3,-328.944
597.4,-329.169
597.5,-329.394
597.6,-329.62
597.7,-329.845
597.8,-330.071
597.9,-330.297
598,-330.524
598.1,-330.75
598.2,-330.977
598.3,-331.203
598.4,-331.43
598.5,-331.657
598.6,-331.885
598.7,-332.112
598.8,-332.34
598.9,-332.567
599,-332.795
599.1,-333.024
599.2,-333.252
599.3,-333.48
599.4,-333.709
599.5,-333.938
599.6,-334.167
599.7,-334.396
599.8,-334.626
599.9,-334.855
600,-335.085
600.1,-335.315
600.2,-335.545
600.3,-335.775
600.4,-336.006
600.5,-336.236
600.6,-336.467
600.7,-336.698
600.8,-336.929
600.9,-337.16
601,-337.392
601.1,-337.624
601.2,-337.856
601.3,-338.088
601.4,-338.32
601.5,-338.552
601.6,-338.785
601.7,-339.018
601.8,-339.251
601.9,-339.484
602,-339.717
602.1,-339.951
602.2,-340.184
602.3,-340.418
602.4,-340.652
602.5,-340.887
602.6,-341.121
602.7,-341.356
602.8,-341.59
602.9,-341.825
603,-342.061
603.1,-342.296
603.2,-342.531
603.3,-342.767
603.4,-343.003
603.5,-343.239
603.6,-343.475
603.7,-343.712
603.8,-343.949
603.9,-344.185
604,-344.422
604.1,-344.66
604.2,-344.897
604.3,-345.135
604.4,-345.372
604.5,-345.61
604.6,-345.848
604.7,-346.087
604.8,-346.325
604.9,-346.564
605,-346.803
605.1,-347.042
605.2,-347.281
605.3,-347.521
605.4,-347.76
605.5,-348
605.6,-348.24
605.7,-348.481
605.8,-348.721
605.9,-348.962
606,-349.202
606.1,-349.443
606.2,-349.684
606.3,-349.926
606.4,-350.167
606.5,-350.409
606.6,-350.651
606.7,-350.893
606.8,-351.136
606.9,-351.378
607,-351.621
607.1,-351.864
607.2,-352.107
607.3,-352.35
607.4,-352.594
607.5,-352.837
607.6,-353.081
607.7,-353.325
607.8,-353.57
607.9,-353.814
608,-354.059
608.1,-354.304
608.2,-354.549
608.3,-354.794
608.4,-355.039
608.5,-355.285
608.6,-355.531
608.7,-355.777
608.8,-356.023
608.9,-356.269
609,-356.516
609.1,-356.763
609.2,-357.01
609.3,-357.257
609.4,-357.505
609.5,-357.752
609.6,-358
609.7,-358.248
609.8,-358.496
609.9,-358.745
610,-358.993
610.1,-359.242
610.2,-359.491
610.3,-359.74
610.4,-359.99
610.5,-360.239
610.6,-360.489
610.7,-360.739
610.8,-360.99
610.9,-361.24
611,-361.491
611.1,-361.741
611.2,-361.992
611.3,-362.244
611.4,-362.495
611.5,-362.747
611.6,-362.999
611.7,-363.251
611.8,-363.503
611.9,-363.756
612,-364.008
612.1,-364.261
612.2,-364.514
612.3,-364.767
612.4,-365.021
612.5,-365.275
612.6,-365.529
612.7,-365.783
612.8,-366.037
612.9,-366.292
613,-366.546
613.1,-366.801
613.2,-367.056
613.3,-367.312
613.4,-367.567
613.5,-367.823
613.6,-368.079
613.7,-368.335
613.8,-368.592
613.9,-368.848
614,-369.105
614.1,-369.362
614.2,-369.62
614.3,-369.877
614.4,-370.135
614.5,-370.393
614.6,-370.651
614.7,-370.909
614.8,-371.168
614.9,-371.426
615,-371.685
615.1,-371.944
615.2,-372.204
615.3,-372.463
615.4,-372.723
615.5,-372.983
615.6,-373.243
615.7,-373.504
615.8,-373.765
615.9,-374.025
616,-374.287
616.1,-374.548
616.2,-374.809
616.3,-375.071
616.4,-375.333
616.5,-375.595
616.6,-375.858
616.7,-376.12
616.8,-376.383
616.9,-376.646
617,-376.909
617.1,-377.173
617.2,-377.437
617.3,-377.701
617.4,-377.965
617.5,-378.229
617.6,-378.494
617.7,-378.758
617.8,-379.024
617.9,-379.289
618,-379.554
618.1,-379.82
618.2,-380.086
618.3,-380.352
618.4,-380.618
618.5,-380.885
618.6,-381.152
618.7,-381.419
618.8,-381.686
618.9,-381.953
619,-382.221
619.1,-382.489
619.2,-382.757
619.3,-383.026
619.4,-383.294
619.5,-383.563
619.6,-383.832
619.7,-384.101
619.8,-384.371
619.9,-384.64
620,-384.91
620.1,-385.181
620.2,-385.451
620.3,-385.722
620.4,-385.992
620.5,-386.264
620.6,-386.535
620.7,-386.806
620.8,-387.078
620.9,-387.35
621,-387.622
621.1,-387.895
621.2,-388.168
621.3,-388.44
621.4,-388.714
621.5,-388.987
621.6,-389.261
621.7,-389.534
621.8,-389.808
621.9,-390.083
622,-390.357
622.1,-390.632
622.2,-390.907
622.3,-391.182
622.4,-391.458
622.5,-391.733
622.6,-392.009
622.7,-392.286
622.8,-392.562
622.9,-392.839
623,-393.116
623.1,-393.393
623.2,-393.67
623.3,-393.948
623.4,-394.225
623.5,-394.503
623.6,-394.782
623.7,-395.06
623.8,-395.339
623.9,-395.618
624,-395.897
624.1,-396.177
624.2,-396.457
624.3,-396.736
624.4,-397.017
624.5,-397.297
624.6,-397.578
624.7,-397.859
624.8,-398.14
624.9,-398.421
625,-398.703
625.1,-398.985
625.2,-399.267
625.3,-399.549
625.4,-399.832
625.5,-400.115
625.6,-400.398
625.7,-400.681
625.8,-400.965
625.9,-401.249
626,-401.533
626.1,-401.817
626.2,-402.102
626.3,-402.386
626.4,-402.671
626.5,-402.957
626.6,-403.242
626.7,-403.528
626.8,-403.814
626.9,-404.1
627,-404.387
627.1,-404.674
