wavelength,polarizability
1100.9,-1657.0639999999999

1100.4,-1635.906

1101.4,-1679.223

1103.9,-1815.326
1103.4,-1783.5030000000002
1105.9,-1984.363
1100.3,-1631.774
1101.5,-1683.797
1108.9,-2583.168
1109.9,-3121.868
1110.9,-4506.327
1111.9,-16685.239999999998
1112.9,3812.0840000000003
1113.9,806.854
1114.9,-14.740999999999872
1115.9,-402.14599999999984
1107.4,-2193.468
1117.9,-782.01
1118.4,-840.9639999999999
1119.4,-936.745
1119.9,-976.5
1120.9,-1044.581
1121.4,-1074.228
1122.4,-1127.125
1123.4,-1173.758
1124.4,-1216.208
1126.4,-1295.047
1126.9,-1314.62
1127.4,-1334.5810000000001
1121.7,-1090.905
1130.4,-1487.863
1131.4,-1583.0950000000003
1132.4,-1790.587
1133.4,-3383.9069999999997
1134.4,-712.4069999999999
1135.4,-1149.8799999999999
1136.4,-1288.4660000000001
1137.4,-1370.056
1138.3,-1426.991
1139.3,-1483.607
1140.3,-1539.135

1141.3,-1597.705

1142.3,-1663.165

1138.4,-1432.8490000000002

1144.3,-1835.815

1145.8,-2042.085

1139.4,-1489.132

1140.4,-1544.7930000000001

1141.4,-1603.8739999999998

1142.4,-1670.2579999999998

1142.5,-1677.471

1144.5,-1858.0549999999998

1146.5,-2185.346

1149.5,-4847.026

1150.5,-88150.342

1151.5,2525.58

1155.5,-630.0609999999999

1156.9,-811.112

1157.5,-868.807

1158.5,-948.684

1159.5,-1014.4209999999999

1160.8,-1086.196

1161.8,-1134.586

1161.9,-1139.194

1162.8,-1179.318

1163.8,-1222.038

1164.8,-1264.279

1165.8,-1307.74

1166.8,-1354.72

1168.6,-1462.748

1162.4,-1161.7540000000001

1162.9,-1183.656

1167.8,-1409.034

1168.8,-1478.525

1169.6,-1558.07

1169.8,-1584.28

1170.8,-1815.098

1171.8,-3884.88

1177.7,-1585.159

1172.8,-751.36

1173.8,-1175.461

1181.1,-1998.4470000000001

1182.1,-2228.014

1181.6,-2101.345

1181.9,-2173.931

1182.6,-2389.027

1186.1,63518.116

1187.1,2662.564

1188.1,759.392

1182.9,-2509.023

1190.1,-255.56400000000008

1191.1,-469.91900000000004

1192.1,-617.948

1193.1,-728.0100000000001

1194.1,-814.458

1195.1,-885.3720000000001

1196.1,-945.693

1197.1,-998.665

1198.1,-1046.563

1199.1,-1091.112

1200.1,-1133.751

1201.1,-1175.833

1202.1,-1218.846

1203.1,-1264.725

1204.1,-1316.46

1205.1,-1379.538

1206.1,-1466.1889999999999

1207.1,-1612.145

1208.1,-1991.3449999999998

1209.1,-30060.783

1210.1,-581.47

1211.1,-991.154

1212.1,-1146.5520000000001

1213.1,-1241.187

1214.1,-1313.404

1215.1,-1376.3429999999998

1216.1,-1436.136

1217.1,-1496.476

1218.1,-1560.209

1219.1,-1630.078

1211.7,-1095.804

1212.2,-1157.733

1218.8,-1608.297

1219.8,-1684.303

1220.3,-1726.5500000000002

1221.1,-1801.908

1221.2,-1812.123

1221.3,-1822.5359999999998

1221.4,-1833.1570000000002

1221.5,-1843.993

1221.6,-1855.0520000000001

1222.1,-1914.0189999999998

1223.0,-2039.121

1224.0,-2218.84

1226.0,-2839.124

1227.0,-3463.1839999999997

1228.0,-4746.957

1229.0,-8986.832

1230.0,48202.455

1231.0,4845.86

1232.0,2044.136

1233.0,1022.868

1242.8,-702.2800000000001

1243.8,-749.5469999999999

1244.8,-792.0929999999998

1245.8,-830.923

1246.8,-866.828

1247.8,-900.4449999999999

1248.8,-932.3129999999999

1249.8,-962.8969999999999

1250.3,-977.8420000000001

1250.8,-992.6260000000001

1251.8,-1021.9100000000001

1252.8,-1051.171

1253.8,-1080.8760000000002

1254.8,-1111.574

1255.8,-1143.956

1256.8,-1178.968

1257.8,-1217.978

1258.8,-1263.1280000000002

1259.8,-1318.04

1260.8,-1389.492

1261.8,-1491.971

1262.8,-1663.289

1263.8,-2043.9560000000001

1264.8,-3971.233

1265.8,1297.54

1266.8,-342.4560000000001

1267.8,-701.617

1268.8,-868.8109999999999

1269.8,-971.668

1270.8,-1045.6080000000002

1271.8,-1104.4470000000001

1273.7,-1195.744

1274.7,-1238.5610000000001

1275.7,-1279.972

1276.7,-1321.0929999999998

1277.7,-1362.826

1278.7,-1405.973

1272.8,-1154.758

1273.8,-1200.1280000000002

1274.8,-1242.7450000000001

1279.7,-1451.309

1275.8,-1284.0810000000001

1276.8,-1325.2250000000001

1277.8,-1367.0639999999999

1278.8,-1410.395

1279.8,-1455.993

1280.8,-1504.6770000000001

1280.7,-1499.6440000000002

1281.8,-1557.357

1282.8,-1615.1100000000001

1283.8,-1679.243

1284.8,-1751.409

1285.0,-1766.983

1286.0,-1851.672

1287.0,-1950.079

1288.0,-2066.407

1289.0,-2206.661

1290.0,-2379.7470000000003

1291.0,-2599.498

1293.0,-3287.349

1293.8,-3735.473

1295.0,-4824.6720000000005

1304.5,1180.862

1305.5,902.0849999999999

1297.0,-11444.074999999999

1298.0,-63002.647

1299.0,15248.252

1309.5,281.93600000000015

1310.5,190.49399999999991

1302.0,2520.7059999999997

1303.0,1817.162

1304.0,1356.3600000000004

1314.5,-60.216999999999985

1315.5,-103.90700000000004

1316.5,-142.41199999999992

1317.5,-176.49599999999998

1309.0,334.1279999999998

1319.5,-233.72700000000003

1320.5,-257.77399999999994

1321.5,-279.24299999999994

1313.0,17.230000000000018

1314.0,-36.13400000000013

1324.5,-330.71599999999995

1325.5,-344.21100000000007

1318.0,-192.07500000000005

1319.0,-220.63499999999993

1320.0,-246.09199999999993

1329.5,-383.46199999999993

1330.5,-390.0570000000001

1331.5,-395.504

1323.0,-307.202

1324.0,-323.33299999999997

1334.5,-405.468

1335.5,-406.80899999999997

1327.0,-361.5269999999999

1328.0,-371.2829999999999

1329.0,-379.717

1339.5,-403.35299999999995

1331.0,-392.9199999999999

1341.5,-397.096

1342.5,-393.14200000000005

1334.0,-404.43899999999996

1335.0,-406.25600000000003

1345.5,-380.28700000000003

1346.5,-376.86899999999997

1338.0,-406.2029999999999

1339.0,-404.49399999999997

1340.0,-402.031

1343.0,-391.02399999999994

1344.0,-386.6410000000001

1345.0,-382.31000000000006

1346.0,-378.44499999999994

1347.0,-375.66099999999994

1355.5,-1135.011

1355.4,-1075.191

1355.9,-1455.885

1356.5,-2448.826

1350.0,-386.031

1351.0,-404.17199999999997

1352.0,-438.94500000000005

1353.0,-503.791

1356.0,-1564.636

1364.7,1916.2210000000002

1365.7,2146.864

1366.7,2449.7380000000003

1367.7,2843.4559999999997

1368.7,3359.2560000000003

1369.7,4049.339

1370.7,5004.885

1371.7,6398.250999999999

1372.7,8596.663

1373.9,13737.836000000001

1373.7,12543.052000000001

1374.7,21605.855999999996

1375.7,63399.076

1376.7,-83116.45300000001

1377.7,-26777.665999999997

1378.7,-16565.190000000002

1379.7,-12302.376

1380.7,-9973.531

1381.7,-8513.518

1382.7,-7518.457

1383.7,-6801.589000000001

1384.7,-6264.722

1385.7,-5851.351000000001

1386.7,-5526.717

1387.7,-5268.311999999999

1388.7,-5060.983

1389.7,-4894.205

1390.2,-4823.6

1390.7,-4760.509999999999

1391.7,-4654.517

1392.7,-4572.329

1393.7,-4511.146

1394.7,-4469.011

1395.7,-4444.651

1396.7,-4437.375

1397.7,-4447.031999999999

1398.7,-4473.999

1399.7,-4519.219999999999

1400.2,-4549.146

1400.7,-4584.294

1401.7,-4671.6140000000005

1402.7,-4784.615

1403.7,-4928.13

1404.7,-5108.982

1408.7,-6487.336

1409.7,-7149.522

1410.7,-8086.198

1405.2,-5216.305

1405.7,-5336.923999999999

1413.7,-16507.537

1406.7,-5626.217

1411.7,-9498.525

1407.7,-5998.387

1408.0,-6130.8060000000005

1418.6,8309.009999999998

1410.0,-7395.254000000001

1411.0,-8446.375

1412.0,-10071.453

1413.0,-12891.918999999998

1414.0,-18940.258

1418.0,11090.159

1425.9,901.701

1426.9,649.1909999999999

1427.9,439.2210000000001

1428.6,312.17599999999993

1428.9,261.97900000000004

1429.9,110.43500000000006

1430.4,42.62900000000002

1430.9,-20.577999999999975

1429.6,153.53600000000006

1431.9,-134.94299999999998

1432.9,-235.62900000000008

1433.9,-324.95200000000006

1434.9,-404.73800000000006

1435.9,-476.44899999999996

1430.1,82.72899999999993

1436.9,-541.269

1437.9,-600.165

1438.9,-653.9359999999999

1439.4,-679.111

1439.9,-703.246

1440.4,-726.4069999999999

1440.9,-748.655

1441.9,-790.634

1442.4,-810.465

1442.9,-829.5849999999999

1443.9,-865.8499999999999

1444.4,-883.0709999999999

1444.9,-899.7270000000001

1445.4,-915.851

1445.9,-931.47

1446.9,-961.3029999999999

1447.9,-989.42

1448.9,-1015.9910000000001

1449.4,-1028.745

1450.4,-1053.274

1451.9,-1087.853

1452.9,-1109.585

1453.9,-1130.374

1463.8,-1300.014

1464.3,-1307.3490000000002

1464.8,-1314.6009999999999

1465.3,-1321.775

1465.8,-1328.873

1466.8,-1342.8609999999999

1467.3,-1349.7559999999999

1467.8,-1356.591

1468.8,-1370.0900000000001

1469.8,-1383.381

1473.6,-1432.397

1470.8,-1396.489

1471.8,-1409.435

1467.4,-1351.128

1468.9,-1371.4279999999999

1469.0,-1372.7640000000001

1470.0,-1386.0169999999998

1471.0,-1399.09

1472.0,-1412.007

1473.0,-1424.7869999999998

1483.9,-1560.442

1475.0,-1450.0149999999999

1476.0,-1462.502

1477.0,-1474.9279999999999

1478.0,-1487.312

1482.0,-1536.768

1483.0,-1549.201

1484.0,-1561.696

1485.0,-1574.272

1486.0,-1586.9479999999999

1487.0,-1599.745

1493.0,-1680.274

1494.0,-1694.558

1495.0,-1709.168

1496.0,-1724.1399999999999

1497.0,-1739.5149999999999

1498.0,-1755.335

1499.0,-1771.6490000000001

1500.0,-1788.513

1501.0,-1805.987

1502.0,-1824.141

1503.0,-1843.054

1504.0,-1862.815

1506.6,-1918.9650000000001

1507.6,-1942.7740000000003

1508.6,-1968.076

1509.6,-1995.087

1510.6,-2024.0700000000002

1511.6,-2055.34

1512.6,-2089.284

1513.6,-2126.381

1514.6,-2167.2340000000004

1515.6,-2212.606

1516.6,-2263.484

1517.1,-2291.379

1517.6,-2321.169

1518.6,-2387.401

1518.8,-2401.871

1519.6,-2464.582

1520.6,-2556.099

1521.6,-2666.911

1522.6,-2804.5640000000003

1523.6,-2981.142

1524.6,-3217.286

1525.6,-3551.385

1528.8,-7638.115

1529.8,-20757.767

1530.8,13781.953999999998

1531.8,3747.7780000000007

1532.8,1575.728

1526.6,-4063.9040000000005

1527.6,-4956.759

1528.6,-6921.416

1529.6,-14905.677000000001

1530.6,22659.516

1533.8,622.014

1531.6,4566.6269999999995

1540.3,-998.76

1540.8,-1044.138

1533.6,767.6610000000002

1534.6,171.5859999999999

1535.6,-205.28000000000003

1536.6,-466.549

1537.6,-659.447

1538.6,-808.5830000000001

1539.6,-928.038

1540.1,-979.471

1550.5,-1537.379

1551.6,-1571.979

1552.5,-1598.848

1544.6,-1298.26

1545.1,-1323.667

1546.6,-1392.749

1547.6,-1433.918

1548.6,-1471.958

1549.6,-1507.385

1559.6,-1781.585

1560.1,-1793.1979999999999

1560.6,-1804.71

1561.6,-1827.4629999999997

1563.5,-1869.898

1564.5,-1891.9189999999999

1565.5,-1913.79

1566.5,-1935.5549999999998

1562.6,-1849.9099999999999

1568.8,-1985.435

1569.8,-2007.132

1570.3,-2018.0

1570.8,-2028.885

1571.8,-2050.727

1572.8,-2072.689

1573.8,-2094.8

1574.8,-2117.091

1575.3,-2128.312

1575.8,-2139.589

1576.8,-2162.3239999999996

1577.8,-2185.322

1578.8,-2208.613

1579.8,-2232.2250000000004

1580.3,-2244.1600000000003

1580.8,-2256.1850000000004

1581.8,-2280.5229999999997

1582.8,-2305.268

1583.8,-2330.448

1584.8,-2356.098

1585.3,-2369.107

1585.8,-2382.245

1586.8,-2408.925

1587.8,-2436.1710000000003

1588.8,-2464.0170000000003

1589.8,-2492.502

1590.3,-2506.995

1590.8,-2521.6639999999998

1591.3,-2536.5099999999998

1588.6,-2458.397

1589.6,-2486.752

1590.1,-2501.177

1591.4,-2539.502

1592.0,-2557.6079999999997

1593.0,-2588.405

1594.0,-2620.015

1595.0,-2652.49

1596.0,-2685.878

1597.0,-2720.234

1598.0,-2755.616

1599.0,-2792.087

1600.0,-2829.71

1576.5,-2155.477

1583.5,-2322.846

1456.5,-1180.5900000000001

1458.5,-1216.039

1461.5,-1265.092

1462.5,-1280.528

1463.5,-1295.571

1464.0,-1302.958

1100.0,-1619.5439999999999

1100.1,-1623.594

1100.5,-1640.069

1100.6,-1644.2640000000001

1101.6,-1688.422

1101.0,-1661.4070000000002

1101.9,-1702.6370000000002

1101.1,-1665.7939999999999

1102.6,-1738.076

1102.9,-1754.4160000000002

1102.5,-1732.795

1102.0,-1707.495

1102.1,-1712.4159999999997

1103.6,-1795.8739999999998

1103.0,-1760.0390000000002

1103.5,-1789.632

1102.4,-1727.5910000000001

1103.1,-1765.755

1104.1,-1828.949

1104.4,-1850.472

1104.6,-1865.62

1104.9,-1889.679

1104.5,-1857.962

1105.4,-1933.895

1105.0,-1898.087

1105.5,-1943.442

1104.0,-1822.069

1105.6,-1953.2490000000003

1106.4,-2042.7559999999999

1106.9,-2111.371

1106.5,-2055.574

1106.1,-2006.658

1106.0,-1995.346

1107.6,-2231.083

1107.5,-2211.89

1107.0,-2126.585

1107.1,-2142.366

1107.9,-2293.8320000000003

1108.1,-2340.612

1108.4,-2419.79

1108.5,-2448.9790000000003

1108.0,-2316.679

1108.6,-2479.765

1109.1,-2663.117

1109.4,-2804.364

1109.5,-2858.42

1109.0,-2621.901

1109.6,-2916.642

1110.1,-3291.5860000000002

1110.4,-3618.013

1110.5,-3752.9269999999997

1110.0,-3202.826

1110.6,-3905.093

1111.1,-5096.358

1111.4,-6565.924

1111.5,-7354.423000000001

1111.0,-4775.87

1111.6,-8426.754

1112.1,-72178.92

1112.4,14491.773

1112.5,9879.920999999998

1112.0,-26537.635000000002

1112.6,7340.706999999999

1113.1,2703.558

1113.4,1707.6130000000003

1113.5,1474.125

1113.0,3192.319

1113.6,1272.8419999999999

1114.1,575.6350000000001

1114.4,305.49800000000005

1114.5,230.66999999999985

1114.0,685.023

1114.6,161.89300000000003

1115.1,-112.79500000000007

1115.4,-237.61199999999997

1115.5,-274.34799999999984

1115.0,-65.46000000000004

1115.6,-309.00199999999995

1116.0,-430.058

1116.4,-528.9839999999999

1116.9,-630.072

1116.5,-550.976

1116.6,-572.0210000000001

1117.1,-665.0550000000001

1117.4,-712.807

1117.5,-727.607

1117.0,-647.9050000000001

1116.1,-456.5999999999999

1118.9,-891.9830000000002

1118.5,-851.742

1118.0,-794.5350000000001

1118.1,-806.675

1117.6,-741.9010000000001

1119.5,-945.0630000000001

1119.0,-901.391

1119.1,-910.5609999999999

1118.6,-862.218

1119.6,-953.1899999999999

1120.0,-983.939

1120.1,-991.221

1120.4,-1012.1990000000001

1120.5,-1018.92

1120.6,-1025.514

1121.9,-1101.615

1121.5,-1079.874

1121.0,-1050.712

1121.1,-1056.739

1121.6,-1085.431

1122.5,-1132.03

1122.6,-1136.8770000000002

1122.9,-1151.081

1122.0,-1106.855

1122.1,-1112.024

1123.5,-1178.161

1123.0,-1155.71

1123.9,-1195.396

1123.1,-1160.2910000000002

1123.6,-1182.525

1124.0,-1199.618

1124.5,-1220.289

1124.6,-1224.346

1124.9,-1236.392

1124.1,-1203.809

1125.0,-1240.37

1125.6,-1263.949

1125.9,-1275.622

1125.1,-1244.332

1125.4,-1256.1350000000002

1126.5,-1298.942

1126.0,-1279.5059999999999

1126.1,-1283.388

1125.5,-1260.0459999999998

1126.6,-1302.845

1127.0,-1318.5729999999999

1127.5,-1338.644

1127.6,-1342.737

1127.9,-1355.22

1127.1,-1322.5430000000001

1128.5,-1381.4089999999999

1128.4,-1376.905

1128.6,-1385.9769999999999

1128.1,-1363.7450000000001

1128.0,-1359.4610000000002

1129.5,-1431.017

1129.6,-1436.596

1128.9,-1400.129

1129.0,-1405.013

1129.4,-1425.578

1130.0,-1460.541

1130.5,-1495.377

1130.9,-1529.0810000000001

1130.1,-1467.008

1129.9,-1454.2820000000002

1131.5,-1596.219

1131.6,-1610.382

1131.9,-1660.858

1131.0,-1538.627

1131.1,-1548.728

1132.5,-1828.6570000000002

1132.6,-1873.425

1132.9,-2074.192

1132.0,-1681.149

1132.1,-1703.724

1133.5,-4592.343

1133.6,-9541.044

1133.9,814.6720000000001

1133.0,-2179.932

1133.1,-2322.268

1134.5,-800.3679999999999

1134.6,-870.089

1134.9,-1014.1360000000001

1134.0,148.211

1134.1,-213.36899999999991

1135.5,-1169.076

1135.6,-1186.5880000000002

1135.9,-1231.299

1135.0,-1048.584

1135.1,-1078.616

1136.5,-1298.147

1136.6,-1307.389

1136.9,-1332.916

1136.0,-1244.162

1136.1,-1256.219

1137.5,-1376.888

1137.6,-1383.563

1137.9,-1402.79

1137.0,-1340.812

1137.1,-1348.451

1138.5,-1438.647

1138.6,-1444.3899999999999

1138.9,-1461.364

1138.0,-1408.973

1138.1,-1415.061

1139.5,-1494.653

1139.6,-1500.1729999999998

1139.9,-1516.77

1139.0,-1466.9550000000002

1139.1,-1472.5230000000001

1140.5,-1550.487

1140.6,-1556.217

1140.9,-1573.674

1140.0,-1522.329

1140.1,-1527.906

1141.5,-1610.115

1141.6,-1616.432

1141.9,-1635.886

1141.0,-1579.593

1141.1,-1585.569

1142.6,-1684.808

1142.9,-1707.635

1142.0,-1642.5529999999999

1142.1,-1649.3179999999998

1143.4,-1748.8039999999999

1143.9,-1794.7559999999999

1143.5,-1757.576

1143.6,-1766.547

1143.0,-1715.5370000000003

1144.4,-1846.7800000000002

1144.9,-1906.594

1144.6,-1869.656

1143.1,-1723.598

1144.0,-1804.627

1145.4,-1976.57

1145.5,-1992.058

1145.0,-1919.6860000000001

1145.6,-2008.116

1145.9,-2060.08

1146.4,-2162.1079999999997

1146.0,-2078.8059999999996

1146.6,-2209.698

1146.9,-2290.358

1145.1,-1933.2040000000002

1147.5,-2497.185

1147.4,-2457.424

1147.0,-2320.138

1147.6,-2539.567

1147.9,-2685.413

1148.4,-3017.0530000000003

1148.5,-3102.523

1148.0,-2741.491

1148.6,-3196.6759999999995

1148.9,-3547.081

1149.4,-4536.045

1149.0,-3693.875

1149.6,-5223.759999999999

1149.9,-7055.500000000001

1148.1,-2802.063

1150.4,-27215.807

1150.6,62871.493

1150.9,9001.453

1149.1,-3860.8650000000002

1150.0,-8115.454

1151.4,2976.2000000000003

1151.6,2159.975

1151.9,1385.3629999999998

1151.0,6743.7660000000005

1150.1,-9653.973

1151.1,5295.619

1152.4,647.9620000000001

1152.5,545.3419999999998

1152.6,452.5869999999999

1152.9,220.96000000000004

1152.0,1197.7150000000001

1153.4,-58.608999999999924

1153.5,-103.41200000000003

1153.0,156.13199999999983

1153.6,-145.36199999999997

1153.9,-256.63800000000003

1154.4,-404.8649999999999

1154.5,-430.19800000000004

1154.0,-289.57499999999993

1154.6,-454.342

1154.9,-520.4640000000002

1155.4,-613.544

1155.0,-540.638

1155.6,-645.9759999999999

1155.9,-690.4449999999999

1154.1,-320.727

1156.4,-755.344

1156.5,-767.154

1156.6,-778.618

1156.0,-704.279

1156.1,-717.6610000000001

1157.4,-859.7860000000001

1157.6,-877.616

1157.9,-902.8520000000001

1157.0,-821.36

1157.1,-831.339

1158.4,-941.429

1158.9,-976.368

1158.6,-955.8

1158.0,-910.8970000000002

1158.1,-918.769

1159.4,-1008.3349999999999

1159.9,-1037.864

1159.6,-1020.4130000000001

1159.0,-982.98

1159.1,-989.479

1160.4,-1065.385

1160.9,-1091.253

1160.5,-1070.68

1160.0,-1043.516

1160.6,-1075.912

1161.4,-1115.77

1161.5,-1120.5349999999999

1161.0,-1096.2549999999999

1161.6,-1125.257

1161.1,-1101.2069999999999

1162.5,-1166.18

1162.6,-1170.5819999999999

1162.0,-1143.768

1162.1,-1148.31

1163.6,-1213.582

1163.4,-1205.094

1163.9,-1226.258

1163.5,-1209.342

1163.0,-1187.9740000000002

1164.4,-1247.339

1164.9,-1268.538

1164.5,-1251.562

1164.6,-1255.7920000000001

1164.0,-1230.475

1165.4,-1290.0819999999999

1165.9,-1312.233

1165.5,-1294.455

1165.0,-1272.812

1165.6,-1298.853

1166.4,-1335.313

1166.5,-1340.075

1166.9,-1359.737

1166.0,-1316.763

1166.1,-1321.333

1167.4,-1386.0700000000002

1167.5,-1391.629

1167.9,-1415.1100000000001

1167.0,-1364.8300000000002

1167.1,-1370.003

1168.5,-1455.283

1168.4,-1448.069

1168.9,-1486.892

1168.0,-1421.339

