wavelength,polarizability
1100.0,-583.832
1100.1,-588.193
1100.2,-592.5790000000001
1100.3,-596.992
1100.4,-601.434
1100.5,-605.906
1100.6,-610.41
1100.7,-614.948
1100.8,-619.523
1100.9,-624.135
1101.0,-628.786
1101.1,-633.48
1101.2,-638.217
1101.3,-642.999
1101.4,-647.83
1101.5,-652.71
1101.6,-657.6419999999999
1101.7,-662.6289999999999
1101.8,-667.671
1101.9,-672.773
1102.0,-677.936
1102.1,-683.1619999999999
1102.2,-688.455
1102.3,-693.817
1102.4,-699.25
1102.5,-704.758
1102.6,-710.342
1102.7,-716.007
1102.8,-721.7560000000001
1102.9,-727.591
1103.0,-733.5160000000001
1103.1,-739.534
1103.2,-745.65
1103.3,-751.8660000000001
1103.4,-758.187
1103.5,-764.617
1103.6,-771.16
1103.7,-777.821
1103.8,-784.6030000000001
1103.9,-791.513
1104.0,-798.555
1104.1,-805.735
1104.2,-813.057
1104.3,-820.529
1104.4,-828.155
1104.5,-835.943
1104.6,-843.8989999999999
1104.7,-852.0310000000001
1104.8,-860.346
1104.9,-868.8510000000001
1105.0,-877.556
1105.1,-886.4680000000001
1105.2,-895.5980000000001
1105.3,-904.955
1105.4,-914.55
1105.5,-924.393
1105.6,-934.4960000000001
1105.7,-944.872
1105.8,-955.534
1105.9,-966.495
1106.0,-977.7719999999999
1106.1,-989.3789999999999
1106.2,-1001.3330000000001
1106.3,-1013.653
1106.4,-1026.358
1106.5,-1039.469
1106.6,-1053.007
1106.7,-1066.998
1106.8,-1081.465
1106.9,-1096.437
1107.0,-1111.943
1107.1,-1128.016
1107.2,-1144.6889999999999
1107.3,-1162.001
1107.4,-1179.991
1107.5,-1198.704
1107.6,-1218.187
1107.7,-1238.493
1107.8,-1259.6789999999999
1107.9,-1281.806
1108.0,-1304.943
1108.1,-1329.165
1108.2,-1354.5539999999999
1108.3,-1381.2020000000002
1108.4,-1409.2089999999998
1108.5,-1438.6870000000001
1108.6,-1469.761
1108.7,-1502.568
1108.8,-1537.265
1108.9,-1574.026
1109.0,-1613.046
1109.1,-1654.549
1109.2,-1698.786
1109.3,-1746.045
1109.4,-1796.655
1109.5,-1850.996
1109.6,-1909.504
1109.7,-1972.69
1109.8,-2041.15
1109.9,-2115.585
1110.0,-2196.828
1110.1,-2285.8720000000003
1110.2,-2383.915
1110.3,-2492.4120000000003
1110.4,-2613.15
1110.5,-2748.348
1110.6,-2900.797
1110.7,-3074.053
1110.8,-3272.722
1110.9,-3502.8790000000004
1111.0,-3772.704
1111.1,-4093.474
1111.2,-4481.194
1111.3,-4959.353
1111.4,-5563.884
1111.5,-6352.664000000001
1111.6,-7425.276
1111.7,-8968.84
1111.8,-11381.284
1111.9,-15684.601999999999
1112.0,-25537.277000000002
1112.1,-71178.842
1112.2,86269.89300000001
1112.3,26465.592
1112.4,15491.014
1112.5,10878.883999999998
1112.6,8339.391
1112.7,6731.52
1112.8,5621.922
1112.9,4809.935
1113.0,4189.892
1113.1,3700.8540000000003
1113.2,3305.2090000000003
1113.3,2978.487
1113.4,2704.079
1113.5,2470.315
1113.6,2268.756
1113.7,2093.149
1113.8,1938.76
1113.9,1801.941
1114.0,1679.835
1114.1,1570.172
1114.2,1471.1270000000002
1114.3,1381.214
1114.4,1299.212
1114.5,1224.11
1114.6,1155.06
1114.7,1091.348
1114.8,1032.37
1114.9,977.6060000000001
1115.0,926.6139999999999
1115.1,879.007
1115.2,834.453
1115.3,792.66
1115.4,753.373
1115.5,716.3660000000001
1115.6,681.44
1115.7,648.42
1115.8,617.148
1115.9,587.4830000000001
1116.0,559.3009999999999
1116.1,532.489
1116.2,506.94300000000004
1116.3,482.57300000000004
1116.4,459.295
1116.5,437.034
1116.6,415.72
1116.7,395.29
1116.8,375.689
1116.9,356.86199999999997
1117.0,338.76099999999997
1117.1,321.343
1117.2,304.566
1117.3,288.393
1117.4,272.788
1117.5,257.721
1117.6,243.16
1117.7,229.079
1117.8,215.451
1117.9,202.252
1118.0,189.46099999999998
1118.1,177.055
1118.2,165.017
1118.3,153.328
1118.4,141.97
1118.5,130.92700000000002
1118.6,120.186
1118.7,109.73100000000001
1118.8,99.54899999999999
1118.9,89.62799999999999
1119.0,79.956
1119.1,70.523
1119.2,61.317
1119.3,52.328
1119.4,43.549
1119.5,34.968
1119.6,26.579
1119.7,18.373
1119.8,10.343
1119.9,2.4819999999999998
1120.0,-5.218
1120.1,-12.762
1120.2,-20.157
1120.3,-27.409000000000002
1120.4,-34.523
1120.5,-41.505
1120.6,-48.358999999999995
1120.7,-55.091
1120.8,-61.705
1120.9,-68.206
1121.0,-74.597
1121.1,-80.883
1121.2,-87.068
1121.3,-93.156
1121.4,-99.149
1121.5,-105.053
1121.6,-110.869
1121.7,-116.601
1121.8,-122.25200000000001
1121.9,-127.82600000000001
1122.0,-133.32399999999998
1122.1,-138.75
1122.2,-144.107
1122.3,-149.39600000000002
1122.4,-154.621
1122.5,-159.783
1122.6,-164.886
1122.7,-169.93099999999998
1122.8,-174.92
1122.9,-179.857
1123.0,-184.74200000000002
1123.1,-189.578
1123.2,-194.36599999999999
1123.3,-199.109
1123.4,-203.80900000000003
1123.5,-208.467
1123.6,-213.085
1123.7,-217.665
1123.8,-222.208
1123.9,-226.717
1124.0,-231.192
1124.1,-235.636
1124.2,-240.05
1124.3,-244.435
1124.4,-248.794
1124.5,-253.127
1124.6,-257.436
1124.7,-261.723
1124.8,-265.99
1124.9,-270.237
1125.0,-274.466
1125.1,-278.67900000000003
1125.2,-282.877
1125.3,-287.061
1125.4,-291.23400000000004
1125.5,-295.39599999999996
1125.6,-299.54900000000004
1125.7,-303.695
1125.8,-307.835
1125.9,-311.971
1126.0,-316.10400000000004
1126.1,-320.235
1126.2,-324.368
1126.3,-328.50199999999995
1126.4,-332.64
1126.5,-336.784
1126.6,-340.935
1126.7,-345.096
1126.8,-349.26800000000003
1126.9,-353.45300000000003
1127.0,-357.653
1127.1,-361.87
1127.2,-366.10699999999997
1127.3,-370.366
1127.4,-374.648
1127.5,-378.958
1127.6,-383.29699999999997
1127.7,-387.668
1127.8,-392.074
1127.9,-396.517
1128.0,-401.00300000000004
1128.1,-405.532
1128.2,-410.111
1128.3,-414.741
1128.4,-419.42699999999996
1128.5,-424.175
1128.6,-428.98699999999997
1128.7,-433.87
1128.8,-438.829
1128.9,-443.87
1129.0,-448.99800000000005
1129.1,-454.221
1129.2,-459.546
1129.3,-464.981
1129.4,-470.535
1129.5,-476.216
1129.6,-482.037
1129.7,-488.00699999999995
1129.8,-494.14
1129.9,-500.449
1130.0,-506.949
1130.1,-513.658
1130.2,-520.594
1130.3,-527.779
1130.4,-535.235
1130.5,-542.99
1130.6,-551.073
1130.7,-559.518
1130.8,-568.363
1130.9,-577.654
1131.0,-587.44
1131.1,-597.78
1131.2,-608.742
1131.3,-620.406
1131.4,-632.864
1131.5,-646.227
1131.6,-660.628
1131.7,-676.2239999999999
1131.8,-693.21
1131.9,-711.819
1132.0,-732.347
1132.1,-755.16
1132.2,-780.727
1132.3,-809.653
1132.4,-842.7339999999999
1132.5,-881.041
1132.6,-926.046
1132.7,-979.832
1132.8,-1045.443
1132.9,-1127.521
1133.0,-1233.497
1133.1,-1376.069
1133.2,-1578.871
1133.3,-1891.474
1133.4,-2438.4139999999998
1133.5,-3647.085
1133.6,-8596.021
1133.7,14308.604
1133.8,3405.522
1133.9,1758.9920000000002
1134.0,1092.297
1134.1,730.4830000000001
1134.2,502.74800000000005
1134.3,345.793
1134.4,230.745
1134.5,142.55100000000002
1134.6,72.597
1134.7,15.595
1134.8,-31.881999999999998
1134.9,-72.148
1135.0,-106.82799999999999
1135.1,-137.092
1135.2,-163.80700000000002
1135.3,-187.625
1135.4,-209.051
1135.5,-228.479
1135.6,-246.222
1135.7,-262.53
1135.8,-277.608
1135.9,-291.625
1136.0,-304.719
1136.1,-317.006
1136.2,-328.586
1136.3,-339.541
1136.4,-349.94300000000004
1136.5,-359.853
1136.6,-369.325
1136.7,-378.403
1136.8,-387.13
1136.9,-395.539
1137.0,-403.664
1137.1,-411.531
1137.2,-419.165
1137.3,-426.588
1137.4,-433.82099999999997
1137.5,-440.88
1137.6,-447.783
1137.7,-454.54400000000004
1137.8,-461.176
1137.9,-467.69199999999995
1138.0,-474.102
1138.1,-480.417
1138.2,-486.647
1138.3,-492.8
1138.4,-498.884
1138.5,-504.908
1138.6,-510.87699999999995
1138.7,-516.8
1138.8,-522.681
1138.9,-528.5269999999999
1139.0,-534.344
1139.1,-540.137
1139.2,-545.91
1139.3,-551.67
1139.4,-557.42
1139.5,-563.165
1139.6,-568.909
1139.7,-574.656
1139.8,-580.411
1139.9,-586.178
1140.0,-591.96
1140.1,-597.761
1140.2,-603.585
1140.3,-609.436
1140.4,-615.317
1140.5,-621.2330000000001
1140.6,-627.186
1140.7,-633.181
1140.8,-639.22
1140.9,-645.309
1141.0,-651.45
1141.1,-657.648
1141.2,-663.905
1141.3,-670.227
1141.4,-676.617
1141.5,-683.079
1141.6,-689.617
1141.7,-696.2360000000001
1141.8,-702.939
1141.9,-709.732
1142.0,-716.6189999999999
1142.1,-723.6039999999999
1142.2,-730.693
1142.3,-737.8910000000001
1142.4,-745.203
1142.5,-752.635
1142.6,-760.192
1142.7,-767.88
1142.8,-775.706
1142.9,-783.675
1143.0,-791.796
1143.1,-800.075
1143.2,-808.5189999999999
1143.3,-817.1360000000001
1143.4,-825.935
1143.5,-834.925
1143.6,-844.113
1143.7,-853.5110000000001
1143.8,-863.128
1143.9,-872.9739999999999
1144.0,-883.062
1144.1,-893.404
1144.2,-904.0110000000001
1144.3,-914.8989999999999
1144.4,-926.08
1144.5,-937.571
1144.6,-949.388
1144.7,-961.548
1144.8,-974.069
1144.9,-986.9730000000001
1145.0,-1000.28
1145.1,-1014.013
1145.2,-1028.197
1145.3,-1042.857
1145.4,-1058.024
1145.5,-1073.726
1145.6,-1089.998
1145.7,-1106.875
1145.8,-1124.396
1145.9,-1142.604
1146.0,-1161.5439999999999
1146.1,-1181.266
1146.2,-1201.825
1146.3,-1223.281
1146.4,-1245.6989999999998
1146.5,-1269.15
1146.6,-1293.715
1146.7,-1319.481
1146.8,-1346.5439999999999
1146.9,-1375.0120000000002
1147.0,-1405.004
1147.1,-1436.654
1147.2,-1470.111
1147.3,-1505.5420000000001
1147.4,-1543.1370000000002
1147.5,-1583.109
1147.6,-1625.7020000000002
1147.7,-1671.192
1147.8,-1719.896
1147.9,-1772.181
1148.0,-1828.469
1148.1,-1889.2520000000002
1148.2,-1955.106
1148.3,-2026.711
1148.4,-2104.8720000000003
1148.5,-2190.552
1148.6,-2284.9139999999998
1148.7,-2389.371
1148.8,-2505.661
1148.9,-2635.947
1149.0,-2782.95
1149.1,-2950.1490000000003
1149.2,-3142.0570000000002
1149.3,-3364.64
1149.4,-3625.954
1149.5,-3937.1440000000002
1149.6,-4314.085999999999
1149.7,-4780.195
1149.8,-5371.496999999999
1149.9,-6146.4490000000005
1150.0,-7206.61
1150.1,-8745.337
1150.2,-11181.813
1150.3,-15626.635
1150.4,-26307.792
1150.5,-87242.53300000001
1150.6,63779.095
1150.7,23020.93
1150.8,13919.04
1150.9,9908.436
1151.0,7650.543000000001
1151.1,6202.191
1151.2,5194.005
1151.3,4451.662
1151.4,3882.155
1151.5,3431.33
1151.6,3065.52
1151.7,2762.6890000000003
1151.8,2507.813
1151.9,2290.294
1152.0,2102.4410000000003
1152.1,1938.5420000000001
1152.2,1794.259
1152.3,1666.245
1152.4,1551.872
1152.5,1449.0479999999998
1152.6,1356.09
1152.7,1271.626
1152.8,1194.526
1152.9,1123.853
1153.0,1058.822
1153.1,998.7719999999999
1153.2,943.1389999999999
1153.3,891.444
1153.4,843.2710000000001
1153.5,798.265
1153.6,756.113
1153.7,716.544
1153.8,679.32
1153.9,644.232
1154.0,611.0930000000001
1154.1,579.74
1154.2,550.025
1154.3,521.817
1154.4,494.999
1154.5,469.465
1154.6,445.12
1154.7,421.87699999999995
1154.8,399.66
1154.9,378.397
1155.0,358.023
1155.1,338.47900000000004
1155.2,319.71299999999997
1155.3,301.67400000000004
1155.4,284.318
1155.5,267.60200000000003
1155.6,251.488
1155.7,235.942
1155.8,220.93
1155.9,206.422
1156.0,192.39
1156.1,178.80900000000003
1156.2,165.653
1156.3,152.901
1156.4,140.531
1156.5,128.524
1156.6,116.86200000000001
1156.7,105.527
1156.8,94.50299999999999
1156.9,83.775
1157.0,73.33
1157.1,63.153999999999996
1157.2,53.233999999999995
1157.3,43.559
1157.4,34.117
1157.5,24.899
1157.6,15.894
1157.7,7.093
1157.8,-1.5119999999999998
1157.9,-9.931000000000001
1158.0,-18.171
1158.1,-26.239
1158.2,-34.143
1158.3,-41.89
1158.4,-49.485
1158.5,-56.935
1158.6,-64.24600000000001
1158.7,-71.423
1158.8,-78.472
1158.9,-85.398
1159.0,-92.205
1159.1,-98.898
1159.2,-105.48100000000001
1159.3,-111.959
1159.4,-118.336
1159.5,-124.616
1159.6,-130.80200000000002
1159.7,-136.898
1159.8,-142.907
1159.9,-148.832
1160.0,-154.678
1160.1,-160.446
1160.2,-166.14
1160.3,-171.763
1160.4,-177.317
1160.5,-182.805
1160.6,-188.229
1160.7,-193.593
1160.8,-198.89700000000002
1160.9,-204.146
1161.0,-209.34
1161.1,-214.483
1161.2,-219.576
1161.3,-224.62099999999998
1161.4,-229.62
1161.5,-234.576
1161.6,-239.489
1161.7,-244.363
1161.8,-249.199
1161.9,-253.998
1162.0,-258.762
1162.1,-263.494
1162.2,-268.194
1162.3,-272.865
1162.4,-277.508
1162.5,-282.124
1162.6,-286.715
1162.7,-291.284
1162.8,-295.83
1162.9,-300.357
1163.0,-304.86400000000003
1163.1,-309.355
1163.2,-313.83
1163.3,-318.291
1163.4,-322.73900000000003
1163.5,-327.176
1163.6,-331.60400000000004
1163.7,-336.023
1163.8,-340.436
1163.9,-344.844
1164.0,-349.24800000000005
1164.1,-353.65
1164.2,-358.05199999999996
1164.3,-362.455
1164.4,-366.86199999999997
1164.5,-371.272
1164.6,-375.689
1164.7,-380.11400000000003
1164.8,-384.54900000000004
1164.9,-388.995
1165.0,-393.455
1165.1,-397.93
1165.2,-402.423
1165.3,-406.936
1165.4,-411.47
1165.5,-416.028
1165.6,-420.61199999999997
1165.7,-425.225
1165.8,-429.87
1165.9,-434.548
1166.0,-439.26300000000003
1166.1,-444.01800000000003
1166.2,-448.815
1166.3,-453.659
1166.4,-458.55199999999996
1166.5,-463.499
1166.6,-468.50199999999995
1166.7,-473.56699999999995
1166.8,-478.69699999999995
1166.9,-483.898
1167.0,-489.17400000000004
1167.1,-494.531
1167.2,-499.975
1167.3,-505.51199999999994
1167.4,-511.148
1167.5,-516.891
1167.6,-522.749
1167.7,-528.731
1167.8,-534.845
1167.9,-541.1030000000001
1168.0,-547.515
1168.1,-554.094
1168.2,-560.8530000000001
1168.3,-567.808
1168.4,-574.974
1168.5,-582.37
1168.6,-590.0169999999999
1168.7,-597.937
1168.8,-606.1569999999999
1168.9,-614.705
1169.0,-623.614
1169.1,-632.9209999999999
1169.2,-642.668
1169.3,-652.904
1169.4,-663.685
1169.5,-675.075
1169.6,-687.15
1169.7,-699.997
1169.8,-713.721
1169.9,-728.444
1170.0,-744.316
1170.1,-761.5139999999999
1170.2,-780.257
1170.3,-800.812
1170.4,-823.515
1170.5,-848.788
1170.6,-877.173
1170.7,-909.3760000000001
1170.8,-946.336
1170.9,-989.326
1171.0,-1040.122
1171.1,-1101.271
1171.2,-1176.568
1171.3,-1271.923
1171.4,-1397.0770000000002
1171.5,-1569.3010000000002
1171.6,-1822.418
1171.7,-2232.889
1171.8,-3017.902
1171.9,-5135.134
1172.0,-31656.561
1172.1,5969.501
1172.2,2397.675
1172.3,1350.398
1172.4,848.5319999999999
1172.5,553.068
1172.6,357.724
1172.7,218.489
1172.8,113.846
1172.9,32.027
1173.0,-33.946999999999996
1173.1,-88.475
1173.2,-134.469
1173.3,-173.93400000000003
1173.4,-208.295
1173.5,-238.593
1173.6,-265.606
1173.7,-289.927
1173.8,-312.01599999999996
1173.9,-332.23699999999997
1174.0,-350.879
1174.1,-368.17800000000005
1174.2,-384.324
1174.3,-399.477
1174.4,-413.769
1174.5,-427.311
1174.6,-440.19599999999997
1174.7,-452.506
1174.8,-464.309
1174.9,-475.666
1175.0,-486.62800000000004
1175.1,-497.24
1175.2,-507.54400000000004
1175.3,-517.575
1175.4,-527.363
1175.5,-536.938
1175.6,-546.3240000000001
1175.7,-555.545
1175.8,-564.622
1175.9,-573.573
1176.0,-582.4159999999999
1176.1,-591.1669999999999
1176.2,-599.84
1176.3,-608.45
1176.4,-617.009
1176.5,-625.53
1176.6,-634.023
1176.7,-642.5
1176.8,-650.972
1176.9,-659.446
1177.0,-667.934
1177.1,-676.445
1177.2,-684.987
1177.3,-693.569
1177.4,-702.2
1177.5,-710.887
1177.6,-719.6410000000001
1177.7,-728.467
1177.8,-737.377
1177.9,-746.3760000000001
1178.0,-755.4739999999999
1178.1,-764.68
1178.2,-774.0010000000001
1178.3,-783.448
1178.4,-793.028
1178.5,-802.7510000000001
1178.6,-812.6260000000001
1178.7,-822.663
1178.8,-832.873
1178.9,-843.265
1179.0,-853.8510000000001
1179.1,-864.6419999999999
1179.2,-875.6489999999999
1179.3,-886.8860000000001
1179.4,-898.365
1179.5,-910.1
1179.6,-922.105
1179.7,-934.395
1179.8,-946.9860000000001
1179.9,-959.8960000000001
1180.0,-973.1410000000001
1180.1,-986.742
1180.2,-1000.7189999999999
1180.3,-1015.092
1180.4,-1029.885
1180.5,-1045.123
1180.6,-1060.8319999999999
1180.7,-1077.039
1180.8,-1093.776
1180.9,-1111.075
1181.0,-1128.971
1181.1,-1147.501
1181.2,-1166.7069999999999
1181.3,-1186.633
1181.4,-1207.327
1181.5,-1228.8419999999999
1181.6,-1251.233
1181.7,-1274.563
1181.8,-1298.9
1181.9,-1324.319
1182.0,-1350.9
1182.1,-1378.734
1182.2,-1407.921
1182.3,-1438.569
1182.4,-1470.8010000000002
1182.5,-1504.753
1182.6,-1540.575
1182.7,-1578.4370000000001
1182.8,-1618.53
1182.9,-1661.067
1183.0,-1706.2920000000001
1183.1,-1754.481
1183.2,-1805.9479999999999
1183.3,-1861.0539999999999
1183.4,-1920.213
1183.5,-1983.908
1183.6,-2052.696
1183.7,-2127.235
1183.8,-2208.2960000000003
1183.9,-2296.797
1184.0,-2393.835
1184.1,-2500.734
1184.2,-2619.107
1184.3,-2750.9390000000003
1184.4,-2898.699
1184.5,-3065.498
1184.6,-3255.317
1184.7,-3473.3259999999996
1184.8,-3726.37
1184.9,-4023.703
1185.0,-4378.155
1185.1,-4808.036
1185.2,-5340.422
1185.3,-6017.102
1185.4,-6906.16
1185.5,-8126.496999999999
1185.6,-9906.136
1185.7,-12744.67
1185.8,-17988.982
1185.9,-30951.572999999997
1186.0,-116210.164
1186.1,64360.842000000004
1186.2,24915.03
1186.3,15335.011
1186.4,11015.872
1186.5,8557.239
1186.6,6969.736
1186.7,5859.866999999999
1186.8,5040.115
1186.9,4409.763
1187.0,3909.877
1187.1,3503.678
1187.2,3167.0229999999997
1187.3,2883.409
1187.4,2641.171
1187.5,2431.831
1187.6,2249.0789999999997
1187.7,2088.124
1187.8,1945.2579999999998
1187.9,1817.569
1188.0,1702.741
1188.1,1598.904
1188.2,1504.5339999999999
1188.3,1418.3770000000002
1188.4,1339.391
1188.5,1266.702
1188.6,1199.5739999999998
1188.7,1137.381
1188.8,1079.587
1188.9,1025.73
1189.0,975.413
1189.1,928.289
1189.2,884.055
1189.3,842.445
1189.4,803.2239999999999
1189.5,766.187
1189.6,731.1489999999999
1189.7,697.947
1189.8,666.433
1189.9,636.476
1190.0,607.9590000000001
1190.1,580.776
1190.2,554.8290000000001
1190.3,530.031
1190.4,506.305
1190.5,483.57599999999996
1190.6,461.78
1190.7,440.85699999999997
1190.8,420.751
1190.9,401.411
1191.0,382.791
1191.1,364.849
1191.2,347.545
1191.3,330.841
1191.4,314.705
1191.5,299.10400000000004
1191.6,284.01099999999997
1191.7,269.397
1191.8,255.238
1191.9,241.50900000000001
1192.0,228.19
1192.1,215.25900000000001
1192.2,202.69799999999998
1192.3,190.489
1192.4,178.614
1192.5,167.058
1192.6,155.806
1192.7,144.844
1192.8,134.159
1192.9,123.73899999999999
1193.0,113.571
1193.1,103.646
1193.2,93.95200000000001
1193.3,84.479
1193.4,75.219
1193.5,66.163
1193.6,57.302
1193.7,48.626999999999995
1193.8,40.133
1193.9,31.811
1194.0,23.654
1194.1,15.657
1194.2,7.813
1194.3,0.115
1194.4,-7.44
1194.5,-14.86
1194.6,-22.148000000000003
1194.7,-29.31
1194.8,-36.351
1194.9,-43.275
1195.0,-50.086000000000006
1195.1,-56.788999999999994
1195.2,-63.387
1195.3,-69.883
1195.4,-76.283
1195.5,-82.589
1195.6,-88.804
1195.7,-94.932
1195.8,-100.976
1195.9,-106.939
1196.0,-112.823
1196.1,-118.632
1196.2,-124.369
1196.3,-130.035
1196.4,-135.63299999999998
1196.5,-141.166
1196.6,-146.635
1196.7,-152.04399999999998
1196.8,-157.395
1196.9,-162.689
1197.0,-167.929
1197.1,-173.11599999999999
1197.2,-178.253
1197.3,-183.342
1197.4,-188.38400000000001
1197.5,-193.38099999999997
1197.6,-198.335
1197.7,-203.248
1197.8,-208.12
1197.9,-212.955
1198.0,-217.75400000000002
1198.1,-222.517
1198.2,-227.247
1198.3,-231.946
1198.4,-236.614
1198.5,-241.253
1198.6,-245.864
1198.7,-250.45
1198.8,-255.011
1198.9,-259.54900000000004
1199.0,-264.065
1199.1,-268.56
1199.2,-273.036
1199.3,-277.495
1199.4,-281.937
1199.5,-286.36400000000003
1199.6,-290.777
1199.7,-295.178
1199.8,-299.567
1199.9,-303.947
1200.0,-308.318
1200.1,-312.683
1200.2,-317.041
1200.3,-321.395
1200.4,-325.746
1200.5,-330.096
1200.6,-334.445
1200.7,-338.795
1200.8,-343.149
1200.9,-347.506
1201.0,-351.869
1201.1,-356.24
1201.2,-360.619
1201.3,-365.009
1201.4,-369.411
1201.5,-373.827
1201.6,-378.259
1201.7,-382.708
1201.8,-387.176
1201.9,-391.666
1202.0,-396.18
1202.1,-400.719
1202.2,-405.286
1202.3,-409.88199999999995
1202.4,-414.51199999999994
1202.5,-419.176
1202.6,-423.87800000000004
1202.7,-428.621
1202.8,-433.406
1202.9,-438.23800000000006
1203.0,-443.12
